! Philips part #: BF511                                   Date: Feb 2005
! Bias condition: VDS=10.00V; VGS=1.0E-04V; ID_MAX=20mA; VGS_START=0V;
! 
#  MHz  S  MA  R  50
! Standard    S11                      S21                      S12                     S22
!             Mag     Ang           Mag     Ang           Mag     Ang          Mag     Ang
! Freq      [rat]   [deg]           [rat]   [deg]            [rat]   [deg]            [rat]   [deg]
40       .99866 -5.5537     .80301  173.51     .01045  85.788     .98777 -2.6418
50       .99831 -6.9239     .80192  171.88     .01302  84.747     .98751 -3.2987
100     .99275 -13.777     .79831  163.89     .02575  79.712     .98466 -6.6081
200     .97234 -27.168     .78107  148.33     .04974  70.089     .97563 -13.014
300     .94319 -39.953     .75711  133.28     .07052  61.092     .96242 -19.286
400     .90943 -52.076     .72965  119.07     .08766  52.711     .94713 -25.288
500     .87388 -63.461     .70057  105.87     .10163  45.081     .93204 -31.107
600     .83978 -74.184     .67292  93.704     .11242  38.469     .91793 -36.800
700     .80951 -84.148     .64149  82.567     .11961  32.457     .90631 -42.336
800     .78373 -93.629     .61443  71.834     .12448  26.563     .89664 -47.811
900     .76067 -102.49     .58993  62.255     .12787  21.342     .88905 -53.276
1000   .74310 -110.82     .56098  53.624     .12818  16.876     .88442 -58.705
